;***************************************************************************
;***************          Aerotech Axis Calibration           **************
;Step Axis System Serial Number: 643494-1-1-YWafer
;Step Axis Stage Serial Number: 518497-01
;Scan Axis System Serial Number: 643494-1-1-XWafer
;Scan Axis Stage Serial Number: 518496-01
;Date Tested: August 1, 2025 09:27:17 EDT
;Optic Location: 25.4mm above TWafer tt
;Payload: 1.4kg
;Average Air Temperature (°C): 21.15
;Average Material Temperature (ºC): 21.31
;Average Air Pressure (mmHg): 740.01
;Average Air Humidity (%): 66.00
;Step Axis CountsPerUnit Parameter: 100000.000000
;Scan Axis CountsPerUnit Parameter: 100000.000000
;***************************************************************************
:START2D 5 6 6 5 5.000 5.000 71 
:START2D POSUNIT=PRIMARY CORUNIT=PRIMARY/1000
-0.0000  -0.0000  	-0.2300  1.2592  	-0.5500  2.6584  	-0.2200  4.4076  	0.0300  6.1268  	-0.1000  8.5060  	0.0700  9.9652  	0.3000  11.3345  	0.3600  12.7937  	0.1500  14.4229  	0.0600  15.7021  	0.0400  17.3313  	0.2200  18.6405  	-0.2300  20.6897  	-0.2000  21.8889  	0.2000  23.3481  	0.4100  25.1673  	0.2800  27.0165  	-0.0400  28.5557  	-0.2300  30.5649  	-0.2600  32.3341  	-0.4300  34.2334  	-0.4600  36.1326  	-0.3000  38.3518  	-0.3500  40.6410  	-0.4100  43.2702  	-0.4600  45.5194  	-0.2800  48.0386  	0.2000  50.6278  	0.4700  53.3970  	0.5500  55.5162  	0.6500  57.9654  	0.4800  60.4046  	-0.0800  62.8738  	0.4200  64.6630  	1.2800  66.4523  	1.6600  68.1815  	1.3400  69.9107  	1.4900  71.2199  	1.7700  72.6891  	1.8500  73.6483  	1.7200  74.8175  	1.9800  75.9267  	2.0900  77.7759  	2.2000  79.4251  	2.5200  81.3843  	2.6800  83.2635  	2.6800  85.6127  	2.2600  87.9519  	1.9100  90.6512  	1.3800  93.3704  	0.7200  96.1796  	-0.1500  98.2788  	0.0900  100.0280  	0.6800  101.2472  	1.3400  102.6264  	1.8000  103.8056  	1.9200  105.4548  	1.9100  107.2140  	1.7400  109.4432  	1.6100  111.6424  	1.4900  113.9816  	1.5800  115.8209  	1.3600  117.9901  	1.1100  119.7293  	0.6400  121.2685  	0.3500  122.3777  	0.1800  123.6969  	0.2600  124.9961  	0.5900  126.2853  	0.8200  127.0545  	
-2.3892  1.6500  	-2.4192  2.7592  	-2.7192  4.1384  	-2.3692  5.8076  	-2.1092  7.9168  	-2.3592  9.7360  	-2.2392  10.9952  	-2.0892  12.5645  	-2.0492  13.9637  	-2.1692  15.3629  	-2.1692  16.6821  	-1.9892  18.4713  	-1.9592  19.8405  	-2.3892  21.6297  	-2.4292  22.8189  	-2.0192  24.3281  	-1.9092  25.8373  	-1.8892  27.6965  	-2.0592  29.3457  	-2.3992  31.1749  	-2.3892  32.9541  	-2.5192  34.7234  	-2.6592  36.5126  	-2.5392  38.6318  	-2.7492  40.8710  	-2.6492  43.4602  	-2.5092  45.6494  	-2.2692  48.3686  	-1.6892  50.8278  	-1.6092  53.3370  	-1.7092  55.4862  	-1.7292  57.9554  	-1.7892  60.2646  	-2.3792  62.7238  	-1.6892  64.4430  	-0.6492  66.4323  	-0.3392  68.0915  	-0.7592  69.8607  	-0.7192  71.1899  	-0.5192  72.4891  	-0.3992  73.3683  	-0.4492  74.4075  	-0.1492  75.5167  	0.0708  77.4259  	0.1908  79.1251  	0.3708  81.0343  	0.4808  82.7735  	0.3808  84.9927  	-0.0492  87.4219  	-0.2692  90.0712  	-0.7592  92.7804  	-1.4192  95.6096  	-2.1892  97.7088  	-1.8892  99.3880  	-1.3192  100.6172  	-0.9292  101.9964  	-0.5092  103.0956  	-0.4792  104.5448  	-0.4892  106.3540  	-0.4792  108.5732  	-0.4992  110.7124  	-0.6192  113.0716  	-0.4892  115.0109  	-0.7592  117.1801  	-1.0892  118.9093  	-1.5592  120.3385  	-1.7792  121.3877  	-1.9492  122.7269  	-1.8092  124.0161  	-1.4292  125.1353  	-1.3992  125.7345  	
-5.1184  2.1300  	-5.2084  3.5192  	-5.3984  4.8884  	-5.0384  6.4276  	-4.8684  8.2668  	-5.1484  10.2060  	-4.9584  11.3352  	-4.9384  12.8045  	-4.8184  14.3437  	-4.8784  16.1929  	-4.8784  17.3221  	-4.7384  18.7313  	-4.8084  19.9805  	-5.3484  21.6797  	-5.4384  22.8789  	-4.9884  24.3081  	-4.8084  25.8773  	-4.7784  27.6565  	-4.8584  29.1957  	-5.1384  31.1049  	-5.1884  32.8141  	-5.4084  34.5534  	-5.5584  36.2726  	-5.4084  38.2718  	-5.5184  40.6310  	-5.3184  43.2302  	-5.2884  45.4494  	-5.0384  47.9386  	-4.5084  50.3578  	-4.4884  52.8870  	-4.6384  54.9762  	-4.6584  57.3154  	-4.6584  59.6646  	-5.0784  62.2038  	-4.3784  63.9530  	-3.5084  65.7023  	-3.1084  67.3015  	-3.5584  69.0707  	-3.5184  70.3699  	-3.4684  71.5291  	-3.3684  72.4383  	-3.4184  73.4875  	-2.9784  74.6267  	-2.7784  76.4359  	-2.6884  77.9751  	-2.5684  79.8743  	-2.4384  81.7035  	-2.4984  83.9027  	-2.9084  86.2619  	-3.1684  88.8112  	-3.6684  91.4004  	-4.2184  94.2796  	-5.1184  96.3788  	-4.8284  98.0780  	-4.2784  99.0972  	-3.8884  100.3564  	-3.3984  101.5156  	-3.2584  103.1448  	-3.2784  104.8140  	-3.3884  107.0832  	-3.4684  108.9324  	-3.5584  111.1616  	-3.4584  113.0909  	-3.6684  115.4701  	-3.9784  117.3093  	-4.3784  118.7085  	-4.5984  119.7577  	-4.7884  120.8069  	-4.7784  121.9661  	-4.4184  123.0853  	-4.2784  123.9145  	
-7.1476  3.4400  	-7.2776  4.7692  	-7.6276  6.1984  	-7.2776  7.8376  	-7.1276  9.3768  	-7.2976  11.0860  	-7.1576  12.2152  	-6.8776  13.7645  	-6.7976  15.1437  	-6.8876  16.7529  	-7.0376  18.0121  	-7.0576  19.7913  	-6.9076  20.9305  	-7.3376  22.5797  	-7.4076  23.5889  	-6.9276  24.8681  	-6.7476  26.2973  	-6.7376  28.2165  	-6.9976  29.8257  	-7.4076  31.6149  	-7.4576  33.1341  	-7.7076  34.8934  	-7.7176  36.6426  	-7.4576  38.5518  	-7.4076  40.6110  	-7.2376  43.3202  	-7.2076  45.4494  	-7.1876  47.9086  	-6.8276  50.3078  	-6.8276  52.8670  	-6.8176  54.8962  	-6.6376  57.0654  	-6.4976  59.3346  	-7.0776  61.9038  	-6.5176  63.6130  	-5.7276  65.4123  	-5.4376  67.1215  	-5.8676  68.7107  	-5.7476  69.8999  	-5.5976  70.9691  	-5.3976  71.8283  	-5.4376  72.9275  	-5.0776  73.9567  	-4.9976  75.6559  	-4.9976  77.3051  	-4.8876  79.2643  	-4.6876  80.9635  	-4.7476  83.1327  	-5.0376  85.4219  	-5.2376  88.1912  	-5.6776  90.7604  	-6.3076  93.3296  	-7.2076  95.3188  	-7.0676  97.0080  	-6.5776  97.9972  	-6.1576  99.2464  	-5.5676  100.4056  	-5.3276  102.0948  	-5.3876  103.7840  	-5.4776  105.8332  	-5.5576  107.9224  	-5.7476  110.1316  	-5.5876  112.0309  	-5.7776  114.2001  	-6.0876  116.0293  	-6.4576  117.4585  	-6.6976  118.5177  	-6.9376  119.3969  	-6.9676  120.2661  	-6.6376  121.4953  	-6.5476  122.3245  	
-10.4068  5.0800  	-10.5168  6.1692  	-10.8068  7.4984  	-10.4668  8.9876  	-10.2868  10.5468  	-10.4168  12.1660  	-10.3568  13.6252  	-10.1768  15.1545  	-10.0468  16.4437  	-10.1568  17.8429  	-10.2468  18.9821  	-10.1968  20.4613  	-10.1068  21.6505  	-10.5868  23.3197  	-10.5868  24.5189  	-10.1568  25.8181  	-10.0268  27.1873  	-10.0468  28.8965  	-10.2968  30.3057  	-10.6068  32.0049  	-10.6668  33.5141  	-10.8368  35.1834  	-10.8168  36.8626  	-10.6468  38.8518  	-10.6468  40.9710  	-10.4968  43.4302  	-10.5268  45.5394  	-10.4668  47.8886  	-10.1468  50.1878  	-10.1068  52.6270  	-10.0468  54.7262  	-9.8768  56.9454  	-9.7968  59.2246  	-10.2668  61.7038  	-9.7968  63.4430  	-9.0168  65.0323  	-8.7468  66.6415  	-9.2368  68.2607  	-9.0468  69.4799  	-8.8868  70.7691  	-8.6668  71.6283  	-8.7168  72.6475  	-8.3368  73.6267  	-8.1968  75.3659  	-8.2268  76.7451  	-7.9968  78.5843  	-7.9768  80.2335  	-8.0168  82.4727  	-8.3368  84.6719  	-8.5668  87.2012  	-8.9968  89.7204  	-9.5968  92.4096  	-10.4568  94.5188  	-10.2568  96.1880  	-9.7468  97.1872  	-9.3268  98.3464  	-8.9568  99.3856  	-8.7268  100.9148  	-8.7268  102.6940  	-8.7768  104.7532  	-8.9268  106.8024  	-8.9868  108.9716  	-8.8568  110.7709  	-9.1568  112.8301  	-9.4468  114.4493  	-9.8768  115.8585  	-10.0268  116.9377  	-10.1468  118.0269  	-10.2268  119.1961  	-9.8768  120.5453  	-9.6468  121.0445  	
-12.7160  6.8200  	-12.7260  7.8392  	-12.9760  9.0084  	-12.6460  10.5776  	-12.3660  11.9968  	-12.5760  13.8160  	-12.6760  15.2052  	-12.5160  16.6445  	-12.4560  17.8537  	-12.5860  19.0729  	-12.5760  20.0321  	-12.4460  21.2913  	-12.2460  22.5605  	-12.6960  24.3597  	-12.8660  25.6189  	-12.5760  26.9781  	-12.5660  28.3173  	-12.5460  29.9065  	-12.6860  31.1657  	-12.9160  32.6849  	-12.8260  34.0241  	-12.9460  35.7034  	-12.9860  37.4526  	-12.8860  39.4518  	-13.0360  41.5210  	-13.0460  43.9002  	-12.8560  45.9194  	-12.7560  48.3386  	-12.2760  50.5678  	-12.1860  52.9470  	-12.1760  54.9562  	-12.1260  57.1454  	-12.0860  59.3346  	-12.4560  61.7238  	-12.1760  63.3630  	-11.3160  65.0323  	-11.0360  66.5015  	-11.4460  68.0307  	-11.3260  69.1499  	-11.0960  70.1791  	-10.9560  71.0383  	-11.0160  71.9475  	-10.6660  72.8767  	-10.5860  74.6159  	-10.5160  76.0651  	-10.4260  77.8943  	-10.3360  79.4835  	-10.3660  81.6827  	-10.6960  83.9519  	-10.9660  86.5212  	-11.3560  88.9604  	-11.8960  91.6896  	-12.7760  93.6988  	-12.4760  95.3180  	-12.0160  96.3372  	-11.6760  97.3464  	-11.3560  98.3656  	-11.1160  99.8248  	-11.1760  101.4740  	-11.1460  103.7332  	-11.2460  105.6724  	-11.3460  107.7816  	-11.2260  109.4809  	-11.5260  111.4501  	-11.8060  113.0893  	-12.1860  114.4785  	-12.2960  115.6577  	-12.4360  116.5669  	-12.5660  117.5461  	-12.2260  118.5453  	-12.0660  118.9645  	
-16.2252  8.3800  	-16.1052  9.5692  	-16.3252  10.8484  	-15.9952  12.4576  	-15.7652  13.7268  	-16.1052  15.3860  	-16.2552  16.5952  	-16.0152  17.7745  	-15.9752  18.9137  	-16.0052  20.1429  	-15.9852  21.1721  	-15.9652  22.6013  	-15.7252  23.6105  	-16.2352  25.3197  	-16.4852  26.4589  	-16.2152  27.6781  	-16.1352  28.9773  	-16.1252  30.6165  	-16.2352  31.8457  	-16.4452  33.3249  	-16.3652  34.6741  	-16.4552  36.3534  	-16.5352  37.8826  	-16.4352  39.6718  	-16.5752  41.5310  	-16.5152  44.0102  	-16.4352  46.1594  	-16.2552  48.5086  	-15.7752  50.6978  	-15.7152  53.1270  	-15.6252  54.9362  	-15.6052  57.0854  	-15.5952  59.2346  	-15.9552  61.6238  	-15.7052  63.2530  	-14.9852  64.7523  	-14.6852  66.3315  	-15.0652  67.7707  	-14.9552  68.8599  	-14.6452  69.8291  	-14.4952  70.5383  	-14.5452  71.4975  	-14.2252  72.4067  	-14.2852  74.0359  	-14.2152  75.3951  	-14.0552  77.1443  	-13.9152  78.6235  	-13.9152  80.7727  	-14.1952  82.9919  	-14.4152  85.4112  	-14.7852  87.7904  	-15.4352  90.5096  	-16.3552  92.3388  	-16.2452  93.8680  	-15.7152  94.7972  	-15.2952  95.8864  	-14.8152  96.9356  	-14.5452  98.5248  	-14.5052  100.1040  	-14.5952  102.1632  	-14.8652  103.9524  	-15.0252  105.9916  	-15.0052  107.7609  	-15.2552  109.7601  	-15.3952  111.4593  	-15.6552  112.8385  	-15.7252  114.1177  	-15.8252  114.9669  	-15.8952  115.6961  	-15.7552  116.5053  	-15.7552  116.9645  	
-18.7245  9.9200  	-18.6245  10.8892  	-18.8245  12.3684  	-18.5445  13.6876  	-18.4445  15.1268  	-18.7745  16.7060  	-18.8045  17.7652  	-18.5245  18.8745  	-18.4145  20.0837  	-18.4745  21.3629  	-18.3845  22.3521  	-18.1945  23.6513  	-18.0945  24.7005  	-18.7545  26.0297  	-18.9945  27.1889  	-18.7945  28.3481  	-18.6345  29.5773  	-18.5845  31.1365  	-18.5945  32.4557  	-18.7745  33.9049  	-18.6645  35.2741  	-18.8445  36.7434  	-18.9845  38.1126  	-18.9545  40.0518  	-19.0545  41.8610  	-19.0245  44.3302  	-18.8245  46.2794  	-18.4545  48.4086  	-18.1345  50.6378  	-18.1645  52.9270  	-18.1045  54.7662  	-18.0545  56.8554  	-18.1345  58.8946  	-18.4945  61.2238  	-18.1445  62.8530  	-17.3145  64.3923  	-17.0345  65.8815  	-17.3845  67.3007  	-17.2545  68.2399  	-17.0645  69.1991  	-17.0045  69.8283  	-17.1445  70.7375  	-16.8345  71.5767  	-16.6845  73.1759  	-16.6545  74.6851  	-16.5445  76.4843  	-16.3745  77.9835  	-16.4045  80.0127  	-16.6745  82.0819  	-16.8945  84.4812  	-17.4045  86.9304  	-17.9945  89.5796  	-18.8745  91.5488  	-18.7345  93.1180  	-18.1645  94.1072  	-17.7645  95.1064  	-17.2845  95.9356  	-17.0645  97.4348  	-17.0345  98.9240  	-17.1745  100.8932  	-17.4445  102.7524  	-17.5545  104.9516  	-17.5045  106.7009  	-17.6245  108.4501  	-17.9145  110.0693  	-18.2245  111.1885  	-18.2645  112.2377  	-18.2845  113.2069  	-18.3945  114.0461  	-18.2845  114.7853  	-18.2945  115.5245  	
-20.8437  11.9300  	-20.6837  12.7092  	-20.8837  13.7984  	-20.7137  15.1076  	-20.6837  16.3168  	-20.9837  18.0260  	-21.0037  19.1952  	-20.6137  20.3245  	-20.5537  21.3237  	-20.5037  22.4929  	-20.3437  23.4621  	-20.3437  24.5613  	-20.3237  25.5005  	-21.1037  27.0097  	-21.4137  28.0789  	-21.0737  29.2381  	-20.8337  30.4373  	-20.7537  31.8865  	-20.6637  32.9957  	-21.0237  34.3049  	-21.0037  35.5441  	-21.3337  37.0334  	-21.4737  38.5526  	-21.3537  40.2518  	-21.3337  42.0710  	-21.1537  44.3302  	-20.9737  46.2694  	-20.6837  48.4486  	-20.3237  50.6378  	-20.4437  52.8470  	-20.5237  54.5662  	-20.4837  56.7154  	-20.4037  58.8046  	-20.6437  60.9938  	-20.2137  62.5830  	-19.4737  64.0323  	-19.2437  65.4615  	-19.6037  66.8807  	-19.5637  67.8199  	-19.3937  68.5691  	-19.3037  69.1383  	-19.3837  69.9675  	-19.0037  70.9167  	-18.9037  72.4759  	-18.8637  73.9451  	-18.7337  75.6443  	-18.5637  77.0735  	-18.6637  79.0227  	-18.9537  80.9919  	-19.1937  83.2812  	-19.5937  85.8504  	-20.1437  88.2996  	-21.0437  90.2188  	-20.8737  91.6580  	-20.3937  92.4472  	-20.0237  93.4764  	-19.5637  94.2356  	-19.2837  95.6448  	-19.3037  97.1340  	-19.4237  99.3032  	-19.6737  101.2224  	-19.8637  103.2916  	-19.8037  104.9109  	-19.9537  106.4601  	-20.1937  108.0493  	-20.4637  109.1485  	-20.5037  110.3777  	-20.5537  111.4869  	-20.6537  112.3861  	-20.4337  113.1553  	-20.5237  113.3645  	
-23.9129  13.6900  	-23.9029  14.6192  	-24.1129  15.4584  	-23.9829  16.7976  	-23.9029  18.0968  	-24.1329  19.9660  	-24.0629  21.2152  	-23.6529  22.0645  	-23.6229  22.8537  	-23.5729  23.9229  	-23.6329  24.7221  	-23.6129  25.6813  	-23.6029  26.7805  	-24.1629  28.2997  	-24.3229  29.1789  	-23.9529  30.2581  	-23.7729  31.5673  	-23.7829  32.9865  	-23.9029  33.9657  	-24.1129  35.1449  	-24.2029  36.3841  	-24.4029  37.7634  	-24.4229  39.2126  	-24.2929  41.0018  	-24.2629  42.6510  	-24.2029  44.8802  	-24.1129  46.6794  	-23.8429  48.6486  	-23.4829  50.4878  	-23.5129  52.8270  	-23.6329  54.4862  	-23.5029  56.5254  	-23.4829  58.4646  	-23.8829  60.7638  	-23.4029  62.3530  	-22.6829  63.6823  	-22.4229  65.0015  	-22.8329  66.3707  	-22.6829  67.2899  	-22.4629  68.0791  	-22.3929  68.5883  	-22.4529  69.4075  	-22.1529  70.2267  	-22.0229  71.6759  	-22.0129  73.0551  	-21.9329  74.7543  	-21.6929  76.1635  	-21.8229  78.0727  	-22.0529  80.1019  	-22.2029  82.5312  	-22.7429  84.8604  	-23.3329  87.4196  	-24.2929  89.2288  	-24.1629  90.5980  	-23.4829  91.2172  	-23.0729  92.0964  	-22.5929  92.8056  	-22.4629  94.2548  	-22.4929  95.8540  	-22.7029  97.8332  	-22.9929  99.4524  	-23.1429  101.4216  	-22.9429  103.0509  	-23.0329  104.9701  	-23.1629  106.4293  	-23.4629  107.6485  	-23.5929  108.7377  	-23.7229  109.5169  	-23.8729  110.2561  	-23.6729  110.8253  	-23.6329  111.2145  	
-26.0821  14.9600  	-26.2421  15.9292  	-26.5621  17.0784  	-26.2721  18.4576  	-26.0021  19.5868  	-26.2721  21.2260  	-26.1321  22.0652  	-25.7121  22.8845  	-25.7721  23.7337  	-25.9221  24.7529  	-25.9821  25.6921  	-25.9721  26.8213  	-25.8421  27.6305  	-26.2421  28.8897  	-26.4421  29.8489  	-26.0221  30.8981  	-25.9821  31.9773  	-26.0821  33.3165  	-26.2321  34.3257  	-26.4321  35.5549  	-26.5221  36.6641  	-26.5721  37.8734  	-26.5021  39.2626  	-26.2621  40.8618  	-26.3421  42.5310  	-26.3721  44.7902  	-26.2821  46.5594  	-26.0921  48.6586  	-25.5721  50.5578  	-25.5721  52.6470  	-25.6221  54.3662  	-25.5421  56.3254  	-25.5321  58.1546  	-26.0321  60.3138  	-25.6821  61.8530  	-24.7821  63.2423  	-24.7221  64.5515  	-25.0121  65.8407  	-24.8421  66.7199  	-24.5921  67.4791  	-24.4821  67.9483  	-24.7021  68.6375  	-24.4321  69.2467  	-24.3821  70.7759  	-24.1821  72.1251  	-24.0621  73.7043  	-23.8521  75.1635  	-23.9021  77.1427  	-24.1821  79.0019  	-24.4421  81.2012  	-24.8821  83.4004  	-25.4621  85.7596  	-26.3421  87.5288  	-26.1921  88.9280  	-25.6121  89.6972  	-25.2021  90.6764  	-24.8821  91.4056  	-24.7721  92.8348  	-24.8821  94.2440  	-24.9821  95.9732  	-25.1621  97.6224  	-25.2321  99.6816  	-25.0321  101.3209  	-25.1221  102.9001  	-25.3721  104.3893  	-25.7621  105.4585  	-25.9221  106.2777  	-26.0421  107.1869  	-26.0121  108.0961  	-25.7421  108.8753  	-25.7321  109.1645  	
-29.2813  17.2800  	-29.2313  18.0592  	-29.4013  19.0784  	-29.0813  20.2476  	-28.8113  21.0568  	-29.2513  22.7860  	-29.3713  23.8552  	-29.0513  24.6445  	-29.1313  25.4637  	-29.0813  26.3529  	-29.1313  27.0721  	-28.9913  27.9913  	-28.8013  28.8005  	-29.2913  29.9897  	-29.5313  30.9689  	-29.2613  31.8181  	-29.2413  32.8373  	-29.2213  34.1465  	-29.2813  35.1357  	-29.4613  36.1649  	-29.4913  37.1841  	-29.5713  38.3734  	-29.6613  39.8226  	-29.4813  41.2718  	-29.5313  42.8910  	-29.5513  45.0702  	-29.3213  46.7294  	-29.0413  48.7286  	-28.5213  50.5078  	-28.5813  52.7070  	-28.7713  54.3662  	-28.8413  56.2954  	-28.6313  57.9446  	-29.0813  60.0338  	-28.6513  61.5430  	-27.6913  62.7523  	-27.6513  63.9715  	-28.1313  65.2707  	-28.0413  66.1099  	-27.8313  66.7191  	-27.8113  67.1383  	-27.7913  67.6575  	-27.3913  68.2867  	-27.2513  69.7259  	-27.1813  71.0951  	-27.1813  72.7243  	-27.0813  74.0935  	-27.1713  75.9327  	-27.4813  77.7319  	-27.6413  79.8212  	-27.9213  82.0304  	-28.3613  84.4496  	-29.2113  86.2288  	-29.0813  87.7880  	-28.6613  88.4372  	-28.3513  89.1164  	-28.0913  89.5856  	-27.9713  90.8148  	-27.9013  92.2640  	-27.9413  94.2332  	-28.0413  96.0024  	-28.1413  97.8716  	-28.0313  99.3109  	-28.2913  100.7301  	-28.6513  102.0693  	-29.0113  103.1785  	-28.9813  104.0577  	-29.0513  105.0769  	-28.9213  106.0461  	-28.6213  106.5853  	-28.7013  106.6545  	
-30.9505  19.3200  	-30.8905  19.9692  	-31.0305  20.9084  	-30.6505  22.0176  	-30.3605  22.8268  	-30.8205  24.4160  	-30.9205  25.3552  	-30.6105  26.4045  	-30.6705  27.0737  	-30.5905  27.8629  	-30.6005  28.4221  	-30.4405  29.2213  	-30.2705  29.9705  	-30.8405  31.2297  	-31.1905  32.1089  	-30.7705  33.0181  	-30.7005  34.0073  	-30.6305  35.2565  	-30.7905  36.0557  	-31.0505  37.0549  	-31.1005  38.0241  	-31.1905  39.1934  	-31.2505  40.4226  	-30.9905  41.8618  	-31.0505  43.3310  	-30.9905  45.5602  	-30.8305  47.1694  	-30.5605  49.0986  	-30.0805  50.8778  	-30.0905  52.8670  	-30.2705  54.4262  	-30.4005  56.1654  	-30.1405  57.7146  	-30.5605  59.7038  	-30.1805  61.2330  	-29.3505  62.5323  	-29.2405  63.8615  	-29.7705  65.0007  	-29.6805  65.7599  	-29.4705  66.1991  	-29.2205  66.5783  	-29.2205  67.2375  	-28.8305  67.8167  	-28.8005  69.1859  	-28.8305  70.3751  	-28.8705  71.8943  	-28.6905  73.2435  	-28.8005  75.0627  	-29.0605  76.8619  	-29.1405  78.9912  	-29.4305  81.1204  	-29.8705  83.4396  	-30.7405  85.0788  	-30.6905  86.3980  	-30.2705  87.0572  	-29.9505  87.8164  	-29.7005  88.4656  	-29.6205  89.5248  	-29.6005  90.8140  	-29.6005  92.5632  	-29.6705  94.4424  	-29.7705  96.2816  	-29.7205  97.7709  	-29.9805  99.1801  	-30.1805  100.3093  	-30.5405  101.2985  	-30.6205  102.1977  	-30.7405  103.0969  	-30.5905  104.0361  	-30.2105  104.7153  	-30.2605  104.7345  	
